Input File: SRS001.78D
Measure Group: FFT
Measurement: Pwr Spec 1
Num of extracted Points: 801
Start Freq: -0 Hz
Span: 102.4 kHz
FFT Lines:  800 
Window: BMH
Averaging Mode: RMS
Averaging Type: Exp. / Cont.
Number of Avg:  200
Overload reject: Off

    X[Hz]      Mag[dBVrms/Hz] 
  0.000000e+00  -1.163790e+02 
  1.280000e+02  -1.176899e+02 
  2.560000e+02  -1.194177e+02 
  3.840000e+02  -1.208423e+02 
  5.120000e+02  -1.229003e+02 
  6.400000e+02  -1.251099e+02 
  7.680000e+02  -1.272638e+02 
  8.960000e+02  -1.287083e+02 
  1.024000e+03  -1.292016e+02 
  1.152000e+03  -1.293023e+02 
  1.280000e+03  -1.294592e+02 
  1.408000e+03  -1.291435e+02 
  1.536000e+03  -1.289645e+02 
  1.664000e+03  -1.287900e+02 
  1.792000e+03  -1.279296e+02 
  1.920000e+03  -1.271486e+02 
  2.048000e+03  -1.270332e+02 
  2.176000e+03  -1.274233e+02 
  2.304000e+03  -1.283649e+02 
  2.432000e+03  -1.291274e+02 
  2.560000e+03  -1.293808e+02 
  2.688000e+03  -1.297280e+02 
  2.816000e+03  -1.302691e+02 
  2.944000e+03  -1.302076e+02 
  3.072000e+03  -1.297724e+02 
  3.200000e+03  -1.295416e+02 
  3.328000e+03  -1.295216e+02 
  3.456000e+03  -1.296941e+02 
  3.584000e+03  -1.294245e+02 
  3.712000e+03  -1.286486e+02 
  3.840000e+03  -1.281744e+02 
  3.968000e+03  -1.283620e+02 
  4.096000e+03  -1.288110e+02 
  4.224000e+03  -1.293789e+02 
  4.352000e+03  -1.300632e+02 
  4.480000e+03  -1.308822e+02 
  4.608000e+03  -1.312548e+02 
  4.736000e+03  -1.314296e+02 
  4.864000e+03  -1.313910e+02 
  4.992000e+03  -1.313468e+02 
  5.120000e+03  -1.310441e+02 
  5.248000e+03  -1.308302e+02 
  5.376000e+03  -1.309313e+02 
  5.504000e+03  -1.310100e+02 
  5.632000e+03  -1.307974e+02 
  5.760000e+03  -1.302692e+02 
  5.888000e+03  -1.299630e+02 
  6.016000e+03  -1.300145e+02 
  6.144000e+03  -1.295361e+02 
  6.272000e+03  -1.284216e+02 
  6.400000e+03  -1.264175e+02 
  6.528000e+03  -1.244804e+02 
  6.656000e+03  -1.242597e+02 
  6.784000e+03  -1.258797e+02 
  6.912000e+03  -1.267067e+02 
  7.040000e+03  -1.262713e+02 
  7.168000e+03  -1.260907e+02 
  7.296000e+03  -1.265146e+02 
  7.424000e+03  -1.261362e+02 
  7.552000e+03  -1.245882e+02 
  7.680000e+03  -1.226965e+02 
  7.808000e+03  -1.213839e+02 
  7.936000e+03  -1.216663e+02 
  8.064000e+03  -1.227218e+02 
  8.192000e+03  -1.233504e+02 
  8.320000e+03  -1.226056e+02 
  8.448000e+03  -1.207515e+02 
  8.576000e+03  -1.184072e+02 
  8.704000e+03  -1.170629e+02 
  8.832000e+03  -1.160473e+02 
  8.960000e+03  -1.128655e+02 
  9.088000e+03  -1.071530e+02 
  9.216000e+03  -1.027092e+02 
  9.344000e+03  -1.030864e+02 
  9.472000e+03  -1.079663e+02 
  9.600000e+03  -1.136238e+02 
  9.728000e+03  -1.167941e+02 
  9.856000e+03  -1.174708e+02 
  9.984000e+03  -1.191266e+02 
  1.011200e+04  -1.220484e+02 
  1.024000e+04  -1.237425e+02 
  1.036800e+04  -1.244127e+02 
  1.049600e+04  -1.249573e+02 
  1.062400e+04  -1.251299e+02 
  1.075200e+04  -1.254334e+02 
  1.088000e+04  -1.264249e+02 
  1.100800e+04  -1.268476e+02 
  1.113600e+04  -1.270726e+02 
  1.126400e+04  -1.264126e+02 
  1.139200e+04  -1.253445e+02 
  1.152000e+04  -1.252602e+02 
  1.164800e+04  -1.246417e+02 
  1.177600e+04  -1.232931e+02 
  1.190400e+04  -1.226765e+02 
  1.203200e+04  -1.237869e+02 
  1.216000e+04  -1.263174e+02 
  1.228800e+04  -1.283838e+02 
  1.241600e+04  -1.285338e+02 
  1.254400e+04  -1.278756e+02 
  1.267200e+04  -1.277191e+02 
  1.280000e+04  -1.282119e+02 
  1.292800e+04  -1.285324e+02 
  1.305600e+04  -1.284879e+02 
  1.318400e+04  -1.285885e+02 
  1.331200e+04  -1.287347e+02 
  1.344000e+04  -1.286615e+02 
  1.356800e+04  -1.282082e+02 
  1.369600e+04  -1.282522e+02 
  1.382400e+04  -1.286326e+02 
  1.395200e+04  -1.286363e+02 
  1.408000e+04  -1.287094e+02 
  1.420800e+04  -1.287961e+02 
  1.433600e+04  -1.287629e+02 
  1.446400e+04  -1.287090e+02 
  1.459200e+04  -1.285722e+02 
  1.472000e+04  -1.285024e+02 
  1.484800e+04  -1.284388e+02 
  1.497600e+04  -1.281354e+02 
  1.510400e+04  -1.277627e+02 
  1.523200e+04  -1.277957e+02 
  1.536000e+04  -1.279658e+02 
  1.548800e+04  -1.279295e+02 
  1.561600e+04  -1.280827e+02 
  1.574400e+04  -1.278603e+02 
  1.587200e+04  -1.273434e+02 
  1.600000e+04  -1.271971e+02 
  1.612800e+04  -1.272401e+02 
  1.625600e+04  -1.271517e+02 
  1.638400e+04  -1.270302e+02 
  1.651200e+04  -1.270802e+02 
  1.664000e+04  -1.265748e+02 
  1.676800e+04  -1.259321e+02 
  1.689600e+04  -1.254344e+02 
  1.702400e+04  -1.246074e+02 
  1.715200e+04  -1.240061e+02 
  1.728000e+04  -1.241151e+02 
  1.740800e+04  -1.239847e+02 
  1.753600e+04  -1.222064e+02 
  1.766400e+04  -1.200823e+02 
  1.779200e+04  -1.198391e+02 
  1.792000e+04  -1.198364e+02 
  1.804800e+04  -1.183093e+02 
  1.817600e+04  -1.142891e+02 
  1.830400e+04  -1.076328e+02 
  1.843200e+04  -1.015062e+02 
  1.856000e+04  -9.963355e+01 
  1.868800e+04  -1.026340e+02 
  1.881600e+04  -1.090087e+02 
  1.894400e+04  -1.148287e+02 
  1.907200e+04  -1.179525e+02 
  1.920000e+04  -1.186321e+02 
  1.932800e+04  -1.191728e+02 
  1.945600e+04  -1.199098e+02 
  1.958400e+04  -1.213218e+02 
  1.971200e+04  -1.227966e+02 
  1.984000e+04  -1.227441e+02 
  1.996800e+04  -1.218472e+02 
  2.009600e+04  -1.222685e+02 
  2.022400e+04  -1.228268e+02 
  2.035200e+04  -1.228045e+02 
  2.048000e+04  -1.230876e+02 
  2.060800e+04  -1.237003e+02 
  2.073600e+04  -1.245927e+02 
  2.086400e+04  -1.251907e+02 
  2.099200e+04  -1.256946e+02 
  2.112000e+04  -1.261441e+02 
  2.124800e+04  -1.266673e+02 
  2.137600e+04  -1.270326e+02 
  2.150400e+04  -1.268552e+02 
  2.163200e+04  -1.267347e+02 
  2.176000e+04  -1.262233e+02 
  2.188800e+04  -1.258585e+02 
  2.201600e+04  -1.260626e+02 
  2.214400e+04  -1.261657e+02 
  2.227200e+04  -1.258322e+02 
  2.240000e+04  -1.256975e+02 
  2.252800e+04  -1.262487e+02 
  2.265600e+04  -1.268151e+02 
  2.278400e+04  -1.269903e+02 
  2.291200e+04  -1.272581e+02 
  2.304000e+04  -1.273977e+02 
  2.316800e+04  -1.270910e+02 
  2.329600e+04  -1.270202e+02 
  2.342400e+04  -1.271173e+02 
  2.355200e+04  -1.272917e+02 
  2.368000e+04  -1.276566e+02 
  2.380800e+04  -1.276289e+02 
  2.393600e+04  -1.272871e+02 
  2.406400e+04  -1.269770e+02 
  2.419200e+04  -1.269425e+02 
  2.432000e+04  -1.272527e+02 
  2.444800e+04  -1.271192e+02 
  2.457600e+04  -1.270625e+02 
  2.470400e+04  -1.269880e+02 
  2.483200e+04  -1.268000e+02 
  2.496000e+04  -1.265026e+02 
  2.508800e+04  -1.261339e+02 
  2.521600e+04  -1.259307e+02 
  2.534400e+04  -1.258708e+02 
  2.547200e+04  -1.254638e+02 
  2.560000e+04  -1.251810e+02 
  2.572800e+04  -1.248646e+02 
  2.585600e+04  -1.242059e+02 
  2.598400e+04  -1.234806e+02 
  2.611200e+04  -1.229867e+02 
  2.624000e+04  -1.226811e+02 
  2.636800e+04  -1.223491e+02 
  2.649600e+04  -1.224643e+02 
  2.662400e+04  -1.229758e+02 
  2.675200e+04  -1.226596e+02 
  2.688000e+04  -1.214836e+02 
  2.700800e+04  -1.209942e+02 
  2.713600e+04  -1.211330e+02 
  2.726400e+04  -1.204670e+02 
  2.739200e+04  -1.184997e+02 
  2.752000e+04  -1.155519e+02 
  2.764800e+04  -1.120742e+02 
  2.777600e+04  -1.096497e+02 
  2.790400e+04  -1.103806e+02 
  2.803200e+04  -1.143143e+02 
  2.816000e+04  -1.192378e+02 
  2.828800e+04  -1.222075e+02 
  2.841600e+04  -1.230034e+02 
  2.854400e+04  -1.232079e+02 
  2.867200e+04  -1.236016e+02 
  2.880000e+04  -1.245421e+02 
  2.892800e+04  -1.256088e+02 
  2.905600e+04  -1.257809e+02 
  2.918400e+04  -1.253166e+02 
  2.931200e+04  -1.253234e+02 
  2.944000e+04  -1.261578e+02 
  2.956800e+04  -1.265019e+02 
  2.969600e+04  -1.265771e+02 
  2.982400e+04  -1.269076e+02 
  2.995200e+04  -1.271729e+02 
  3.008000e+04  -1.272118e+02 
  3.020800e+04  -1.270038e+02 
  3.033600e+04  -1.269334e+02 
  3.046400e+04  -1.273326e+02 
  3.059200e+04  -1.274797e+02 
  3.072000e+04  -1.272331e+02 
  3.084800e+04  -1.272955e+02 
  3.097600e+04  -1.275707e+02 
  3.110400e+04  -1.275788e+02 
  3.123200e+04  -1.273241e+02 
  3.136000e+04  -1.272258e+02 
  3.148800e+04  -1.272464e+02 
  3.161600e+04  -1.273320e+02 
  3.174400e+04  -1.274573e+02 
  3.187200e+04  -1.275986e+02 
  3.200000e+04  -1.275420e+02 
  3.212800e+04  -1.275803e+02 
  3.225600e+04  -1.275899e+02 
  3.238400e+04  -1.275510e+02 
  3.251200e+04  -1.276592e+02 
  3.264000e+04  -1.276118e+02 
  3.276800e+04  -1.272761e+02 
  3.289600e+04  -1.271594e+02 
  3.302400e+04  -1.274072e+02 
  3.315200e+04  -1.276046e+02 
  3.328000e+04  -1.275569e+02 
  3.340800e+04  -1.277244e+02 
  3.353600e+04  -1.279499e+02 
  3.366400e+04  -1.279877e+02 
  3.379200e+04  -1.280342e+02 
  3.392000e+04  -1.280551e+02 
  3.404800e+04  -1.279324e+02 
  3.417600e+04  -1.278521e+02 
  3.430400e+04  -1.278171e+02 
  3.443200e+04  -1.275014e+02 
  3.456000e+04  -1.274132e+02 
  3.468800e+04  -1.276813e+02 
  3.481600e+04  -1.276463e+02 
  3.494400e+04  -1.274976e+02 
  3.507200e+04  -1.273341e+02 
  3.520000e+04  -1.271260e+02 
  3.532800e+04  -1.271969e+02 
  3.545600e+04  -1.274907e+02 
  3.558400e+04  -1.274322e+02 
  3.571200e+04  -1.273671e+02 
  3.584000e+04  -1.275627e+02 
  3.596800e+04  -1.275438e+02 
  3.609600e+04  -1.274524e+02 
  3.622400e+04  -1.273345e+02 
  3.635200e+04  -1.275424e+02 
  3.648000e+04  -1.278018e+02 
  3.660800e+04  -1.275990e+02 
  3.673600e+04  -1.273768e+02 
  3.686400e+04  -1.269253e+02 
  3.699200e+04  -1.262977e+02 
  3.712000e+04  -1.260090e+02 
  3.724800e+04  -1.266304e+02 
  3.737600e+04  -1.272285e+02 
  3.750400e+04  -1.274936e+02 
  3.763200e+04  -1.276561e+02 
  3.776000e+04  -1.278358e+02 
  3.788800e+04  -1.280342e+02 
  3.801600e+04  -1.279509e+02 
  3.814400e+04  -1.278397e+02 
  3.827200e+04  -1.278316e+02 
  3.840000e+04  -1.280251e+02 
  3.852800e+04  -1.280131e+02 
  3.865600e+04  -1.281195e+02 
  3.878400e+04  -1.282165e+02 
  3.891200e+04  -1.281404e+02 
  3.904000e+04  -1.280417e+02 
  3.916800e+04  -1.281611e+02 
  3.929600e+04  -1.282342e+02 
  3.942400e+04  -1.279799e+02 
  3.955200e+04  -1.278335e+02 
  3.968000e+04  -1.279868e+02 
  3.980800e+04  -1.280873e+02 
  3.993600e+04  -1.281027e+02 
  4.006400e+04  -1.280361e+02 
  4.019200e+04  -1.282248e+02 
  4.032000e+04  -1.283924e+02 
  4.044800e+04  -1.282040e+02 
  4.057600e+04  -1.280841e+02 
  4.070400e+04  -1.282536e+02 
  4.083200e+04  -1.281698e+02 
  4.096000e+04  -1.279455e+02 
  4.108800e+04  -1.279740e+02 
  4.121600e+04  -1.281960e+02 
  4.134400e+04  -1.282790e+02 
  4.147200e+04  -1.283227e+02 
  4.160000e+04  -1.282010e+02 
  4.172800e+04  -1.280966e+02 
  4.185600e+04  -1.281644e+02 
  4.198400e+04  -1.284120e+02 
  4.211200e+04  -1.283337e+02 
  4.224000e+04  -1.283261e+02 
  4.236800e+04  -1.286146e+02 
  4.249600e+04  -1.286400e+02 
  4.262400e+04  -1.282756e+02 
  4.275200e+04  -1.280430e+02 
  4.288000e+04  -1.281093e+02 
  4.300800e+04  -1.282530e+02 
  4.313600e+04  -1.280239e+02 
  4.326400e+04  -1.279827e+02 
  4.339200e+04  -1.281739e+02 
  4.352000e+04  -1.284481e+02 
  4.364800e+04  -1.286789e+02 
  4.377600e+04  -1.286031e+02 
  4.390400e+04  -1.283027e+02 
  4.403200e+04  -1.281241e+02 
  4.416000e+04  -1.281271e+02 
  4.428800e+04  -1.281214e+02 
  4.441600e+04  -1.282894e+02 
  4.454400e+04  -1.283666e+02 
  4.467200e+04  -1.281212e+02 
  4.480000e+04  -1.277980e+02 
  4.492800e+04  -1.277404e+02 
  4.505600e+04  -1.277626e+02 
  4.518400e+04  -1.277012e+02 
  4.531200e+04  -1.277905e+02 
  4.544000e+04  -1.278471e+02 
  4.556800e+04  -1.279003e+02 
  4.569600e+04  -1.281135e+02 
  4.582400e+04  -1.281895e+02 
  4.595200e+04  -1.281349e+02 
  4.608000e+04  -1.276487e+02 
  4.620800e+04  -1.272069e+02 
  4.633600e+04  -1.271474e+02 
  4.646400e+04  -1.270673e+02 
  4.659200e+04  -1.272982e+02 
  4.672000e+04  -1.276604e+02 
  4.684800e+04  -1.279187e+02 
  4.697600e+04  -1.281121e+02 
  4.710400e+04  -1.281575e+02 
  4.723200e+04  -1.282558e+02 
  4.736000e+04  -1.284619e+02 
  4.748800e+04  -1.285239e+02 
  4.761600e+04  -1.284588e+02 
  4.774400e+04  -1.282984e+02 
  4.787200e+04  -1.283321e+02 
  4.800000e+04  -1.283030e+02 
  4.812800e+04  -1.283988e+02 
  4.825600e+04  -1.286003e+02 
  4.838400e+04  -1.286339e+02 
  4.851200e+04  -1.284939e+02 
  4.864000e+04  -1.285230e+02 
  4.876800e+04  -1.285960e+02 
  4.889600e+04  -1.287511e+02 
  4.902400e+04  -1.289214e+02 
  4.915200e+04  -1.287301e+02 
  4.928000e+04  -1.283494e+02 
  4.940800e+04  -1.282658e+02 
  4.953600e+04  -1.286284e+02 
  4.966400e+04  -1.286368e+02 
  4.979200e+04  -1.285179e+02 
  4.992000e+04  -1.285364e+02 
  5.004800e+04  -1.284592e+02 
  5.017600e+04  -1.285884e+02 
  5.030400e+04  -1.287382e+02 
  5.043200e+04  -1.287115e+02 
  5.056000e+04  -1.286247e+02 
  5.068800e+04  -1.284980e+02 
  5.081600e+04  -1.285385e+02 
  5.094400e+04  -1.287195e+02 
  5.107200e+04  -1.287348e+02 
  5.120000e+04  -1.285343e+02 
  5.132800e+04  -1.283607e+02 
  5.145600e+04  -1.283828e+02 
  5.158400e+04  -1.284602e+02 
  5.171200e+04  -1.284317e+02 
  5.184000e+04  -1.283065e+02 
  5.196800e+04  -1.282709e+02 
  5.209600e+04  -1.284984e+02 
  5.222400e+04  -1.286755e+02 
  5.235200e+04  -1.287692e+02 
  5.248000e+04  -1.286618e+02 
  5.260800e+04  -1.285150e+02 
  5.273600e+04  -1.284557e+02 
  5.286400e+04  -1.283421e+02 
  5.299200e+04  -1.284147e+02 
  5.312000e+04  -1.288958e+02 
  5.324800e+04  -1.290044e+02 
  5.337600e+04  -1.287139e+02 
  5.350400e+04  -1.287156e+02 
  5.363200e+04  -1.285672e+02 
  5.376000e+04  -1.283915e+02 
  5.388800e+04  -1.283087e+02 
  5.401600e+04  -1.285759e+02 
  5.414400e+04  -1.285951e+02 
  5.427200e+04  -1.284706e+02 
  5.440000e+04  -1.285437e+02 
  5.452800e+04  -1.285214e+02 
  5.465600e+04  -1.286958e+02 
  5.478400e+04  -1.286674e+02 
  5.491200e+04  -1.285999e+02 
  5.504000e+04  -1.286420e+02 
  5.516800e+04  -1.288251e+02 
  5.529600e+04  -1.288147e+02 
  5.542400e+04  -1.286759e+02 
  5.555200e+04  -1.284470e+02 
  5.568000e+04  -1.283205e+02 
  5.580800e+04  -1.283528e+02 
  5.593600e+04  -1.285836e+02 
  5.606400e+04  -1.285907e+02 
  5.619200e+04  -1.285261e+02 
  5.632000e+04  -1.282927e+02 
  5.644800e+04  -1.283865e+02 
  5.657600e+04  -1.288085e+02 
  5.670400e+04  -1.286075e+02 
  5.683200e+04  -1.285961e+02 
  5.696000e+04  -1.287554e+02 
  5.708800e+04  -1.286510e+02 
  5.721600e+04  -1.286073e+02 
  5.734400e+04  -1.287804e+02 
  5.747200e+04  -1.290759e+02 
  5.760000e+04  -1.291717e+02 
  5.772800e+04  -1.291376e+02 
  5.785600e+04  -1.289307e+02 
  5.798400e+04  -1.288000e+02 
  5.811200e+04  -1.287955e+02 
  5.824000e+04  -1.288625e+02 
  5.836800e+04  -1.289814e+02 
  5.849600e+04  -1.291122e+02 
  5.862400e+04  -1.290127e+02 
  5.875200e+04  -1.289469e+02 
  5.888000e+04  -1.287233e+02 
  5.900800e+04  -1.287239e+02 
  5.913600e+04  -1.288730e+02 
  5.926400e+04  -1.289306e+02 
  5.939200e+04  -1.291190e+02 
  5.952000e+04  -1.290411e+02 
  5.964800e+04  -1.288001e+02 
  5.977600e+04  -1.286661e+02 
  5.990400e+04  -1.285701e+02 
  6.003200e+04  -1.286111e+02 
  6.016000e+04  -1.288518e+02 
  6.028800e+04  -1.290154e+02 
  6.041600e+04  -1.291763e+02 
  6.054400e+04  -1.292801e+02 
  6.067200e+04  -1.292057e+02 
  6.080000e+04  -1.290351e+02 
  6.092800e+04  -1.289048e+02 
  6.105600e+04  -1.289324e+02 
  6.118400e+04  -1.288507e+02 
  6.131200e+04  -1.287709e+02 
  6.144000e+04  -1.287746e+02 
  6.156800e+04  -1.288403e+02 
  6.169600e+04  -1.286676e+02 
  6.182400e+04  -1.285480e+02 
  6.195200e+04  -1.287337e+02 
  6.208000e+04  -1.290044e+02 
  6.220800e+04  -1.289975e+02 
  6.233600e+04  -1.289831e+02 
  6.246400e+04  -1.288754e+02 
  6.259200e+04  -1.289825e+02 
  6.272000e+04  -1.292422e+02 
  6.284800e+04  -1.293718e+02 
  6.297600e+04  -1.292287e+02 
  6.310400e+04  -1.290202e+02 
  6.323200e+04  -1.290585e+02 
  6.336000e+04  -1.290325e+02 
  6.348800e+04  -1.292749e+02 
  6.361600e+04  -1.293558e+02 
  6.374400e+04  -1.291383e+02 
  6.387200e+04  -1.291685e+02 
  6.400000e+04  -1.291405e+02 
  6.412800e+04  -1.290049e+02 
  6.425600e+04  -1.287661e+02 
  6.438400e+04  -1.287028e+02 
  6.451200e+04  -1.287222e+02 
  6.464000e+04  -1.288801e+02 
  6.476800e+04  -1.289165e+02 
  6.489600e+04  -1.289946e+02 
  6.502400e+04  -1.292176e+02 
  6.515200e+04  -1.292911e+02 
  6.528000e+04  -1.290021e+02 
  6.540800e+04  -1.286467e+02 
  6.553600e+04  -1.285786e+02 
  6.566400e+04  -1.289323e+02 
  6.579200e+04  -1.289130e+02 
  6.592000e+04  -1.286418e+02 
  6.604800e+04  -1.287957e+02 
  6.617600e+04  -1.289173e+02 
  6.630400e+04  -1.289142e+02 
  6.643200e+04  -1.289458e+02 
  6.656000e+04  -1.289833e+02 
  6.668800e+04  -1.291149e+02 
  6.681600e+04  -1.289639e+02 
  6.694400e+04  -1.287871e+02 
  6.707200e+04  -1.288107e+02 
  6.720000e+04  -1.289203e+02 
  6.732800e+04  -1.289706e+02 
  6.745600e+04  -1.290841e+02 
  6.758400e+04  -1.292099e+02 
  6.771200e+04  -1.289757e+02 
  6.784000e+04  -1.290460e+02 
  6.796800e+04  -1.294632e+02 
  6.809600e+04  -1.294933e+02 
  6.822400e+04  -1.293067e+02 
  6.835200e+04  -1.291551e+02 
  6.848000e+04  -1.292206e+02 
  6.860800e+04  -1.290803e+02 
  6.873600e+04  -1.290741e+02 
  6.886400e+04  -1.290004e+02 
  6.899200e+04  -1.290136e+02 
  6.912000e+04  -1.292630e+02 
  6.924800e+04  -1.293644e+02 
  6.937600e+04  -1.293157e+02 
  6.950400e+04  -1.290696e+02 
  6.963200e+04  -1.287063e+02 
  6.976000e+04  -1.286843e+02 
  6.988800e+04  -1.288103e+02 
  7.001600e+04  -1.288814e+02 
  7.014400e+04  -1.291516e+02 
  7.027200e+04  -1.292908e+02 
  7.040000e+04  -1.291191e+02 
  7.052800e+04  -1.291761e+02 
  7.065600e+04  -1.290777e+02 
  7.078400e+04  -1.290793e+02 
  7.091200e+04  -1.291766e+02 
  7.104000e+04  -1.290566e+02 
  7.116800e+04  -1.289989e+02 
  7.129600e+04  -1.293502e+02 
  7.142400e+04  -1.295747e+02 
  7.155200e+04  -1.291701e+02 
  7.168000e+04  -1.289990e+02 
  7.180800e+04  -1.292164e+02 
  7.193600e+04  -1.295156e+02 
  7.206400e+04  -1.293450e+02 
  7.219200e+04  -1.290764e+02 
  7.232000e+04  -1.290760e+02 
  7.244800e+04  -1.290403e+02 
  7.257600e+04  -1.289682e+02 
  7.270400e+04  -1.290321e+02 
  7.283200e+04  -1.290515e+02 
  7.296000e+04  -1.289906e+02 
  7.308800e+04  -1.293313e+02 
  7.321600e+04  -1.294188e+02 
  7.334400e+04  -1.292886e+02 
  7.347200e+04  -1.292514e+02 
  7.360000e+04  -1.290739e+02 
  7.372800e+04  -1.289621e+02 
  7.385600e+04  -1.289374e+02 
  7.398400e+04  -1.291086e+02 
  7.411200e+04  -1.293897e+02 
  7.424000e+04  -1.292343e+02 
  7.436800e+04  -1.289803e+02 
  7.449600e+04  -1.287686e+02 
  7.462400e+04  -1.286871e+02 
  7.475200e+04  -1.287933e+02 
  7.488000e+04  -1.289022e+02 
  7.500800e+04  -1.289424e+02 
  7.513600e+04  -1.291683e+02 
  7.526400e+04  -1.292474e+02 
  7.539200e+04  -1.293603e+02 
  7.552000e+04  -1.294025e+02 
  7.564800e+04  -1.292720e+02 
  7.577600e+04  -1.291051e+02 
  7.590400e+04  -1.290889e+02 
  7.603200e+04  -1.291172e+02 
  7.616000e+04  -1.291629e+02 
  7.628800e+04  -1.292834e+02 
  7.641600e+04  -1.290582e+02 
  7.654400e+04  -1.288087e+02 
  7.667200e+04  -1.287428e+02 
  7.680000e+04  -1.288902e+02 
  7.692800e+04  -1.289173e+02 
  7.705600e+04  -1.288026e+02 
  7.718400e+04  -1.288483e+02 
  7.731200e+04  -1.288578e+02 
  7.744000e+04  -1.289370e+02 
  7.756800e+04  -1.289105e+02 
  7.769600e+04  -1.289552e+02 
  7.782400e+04  -1.289884e+02 
  7.795200e+04  -1.292357e+02 
  7.808000e+04  -1.296280e+02 
  7.820800e+04  -1.295260e+02 
  7.833600e+04  -1.292186e+02 
  7.846400e+04  -1.288078e+02 
  7.859200e+04  -1.286878e+02 
  7.872000e+04  -1.286712e+02 
  7.884800e+04  -1.289256e+02 
  7.897600e+04  -1.291692e+02 
  7.910400e+04  -1.291382e+02 
  7.923200e+04  -1.292306e+02 
  7.936000e+04  -1.291532e+02 
  7.948800e+04  -1.291474e+02 
  7.961600e+04  -1.290696e+02 
  7.974400e+04  -1.290540e+02 
  7.987200e+04  -1.289501e+02 
  8.000000e+04  -1.289328e+02 
  8.012800e+04  -1.290777e+02 
  8.025600e+04  -1.292308e+02 
  8.038400e+04  -1.292125e+02 
  8.051200e+04  -1.292909e+02 
  8.064000e+04  -1.292505e+02 
  8.076800e+04  -1.292222e+02 
  8.089600e+04  -1.293207e+02 
  8.102400e+04  -1.292708e+02 
  8.115200e+04  -1.289807e+02 
  8.128000e+04  -1.287817e+02 
  8.140800e+04  -1.290184e+02 
  8.153600e+04  -1.292569e+02 
  8.166400e+04  -1.292808e+02 
  8.179200e+04  -1.294080e+02 
  8.192000e+04  -1.295561e+02 
  8.204800e+04  -1.293704e+02 
  8.217600e+04  -1.292974e+02 
  8.230400e+04  -1.294377e+02 
  8.243200e+04  -1.292747e+02 
  8.256000e+04  -1.288270e+02 
  8.268800e+04  -1.289344e+02 
  8.281600e+04  -1.292948e+02 
  8.294400e+04  -1.294596e+02 
  8.307200e+04  -1.293475e+02 
  8.320000e+04  -1.292518e+02 
  8.332800e+04  -1.292721e+02 
  8.345600e+04  -1.291884e+02 
  8.358400e+04  -1.289128e+02 
  8.371200e+04  -1.287846e+02 
  8.384000e+04  -1.289133e+02 
  8.396800e+04  -1.290381e+02 
  8.409600e+04  -1.291303e+02 
  8.422400e+04  -1.292645e+02 
  8.435200e+04  -1.292030e+02 
  8.448000e+04  -1.288044e+02 
  8.460800e+04  -1.288429e+02 
  8.473600e+04  -1.293353e+02 
  8.486400e+04  -1.296710e+02 
  8.499200e+04  -1.293445e+02 
  8.512000e+04  -1.290167e+02 
  8.524800e+04  -1.290058e+02 
  8.537600e+04  -1.292865e+02 
  8.550400e+04  -1.294669e+02 
  8.563200e+04  -1.295106e+02 
  8.576000e+04  -1.294183e+02 
  8.588800e+04  -1.292612e+02 
  8.601600e+04  -1.293661e+02 
  8.614400e+04  -1.293793e+02 
  8.627200e+04  -1.294452e+02 
  8.640000e+04  -1.295491e+02 
  8.652800e+04  -1.294266e+02 
  8.665600e+04  -1.291756e+02 
  8.678400e+04  -1.290966e+02 
  8.691200e+04  -1.290983e+02 
  8.704000e+04  -1.291732e+02 
  8.716800e+04  -1.290659e+02 
  8.729600e+04  -1.290722e+02 
  8.742400e+04  -1.293351e+02 
  8.755200e+04  -1.292437e+02 
  8.768000e+04  -1.292933e+02 
  8.780800e+04  -1.292596e+02 
  8.793600e+04  -1.290531e+02 
  8.806400e+04  -1.289736e+02 
  8.819200e+04  -1.291183e+02 
  8.832000e+04  -1.292751e+02 
  8.844800e+04  -1.292929e+02 
  8.857600e+04  -1.292252e+02 
  8.870400e+04  -1.291099e+02 
  8.883200e+04  -1.289277e+02 
  8.896000e+04  -1.289137e+02 
  8.908800e+04  -1.291721e+02 
  8.921600e+04  -1.293783e+02 
  8.934400e+04  -1.291516e+02 
  8.947200e+04  -1.290946e+02 
  8.960000e+04  -1.291675e+02 
  8.972800e+04  -1.292762e+02 
  8.985600e+04  -1.295353e+02 
  8.998400e+04  -1.295679e+02 
  9.011200e+04  -1.292108e+02 
  9.024000e+04  -1.290035e+02 
  9.036800e+04  -1.291974e+02 
  9.049600e+04  -1.292681e+02 
  9.062400e+04  -1.291909e+02 
  9.075200e+04  -1.293489e+02 
  9.088000e+04  -1.294223e+02 
  9.100800e+04  -1.294477e+02 
  9.113600e+04  -1.294448e+02 
  9.126400e+04  -1.294029e+02 
  9.139200e+04  -1.296773e+02 
  9.152000e+04  -1.299389e+02 
  9.164800e+04  -1.298159e+02 
  9.177600e+04  -1.295681e+02 
  9.190400e+04  -1.293698e+02 
  9.203200e+04  -1.292854e+02 
  9.216000e+04  -1.293592e+02 
  9.228800e+04  -1.293522e+02 
  9.241600e+04  -1.294878e+02 
  9.254400e+04  -1.296458e+02 
  9.267200e+04  -1.294854e+02 
  9.280000e+04  -1.293399e+02 
  9.292800e+04  -1.295045e+02 
  9.305600e+04  -1.296161e+02 
  9.318400e+04  -1.293152e+02 
  9.331200e+04  -1.290872e+02 
  9.344000e+04  -1.291302e+02 
  9.356800e+04  -1.292668e+02 
  9.369600e+04  -1.293421e+02 
  9.382400e+04  -1.295707e+02 
  9.395200e+04  -1.295879e+02 
  9.408000e+04  -1.293386e+02 
  9.420800e+04  -1.293027e+02 
  9.433600e+04  -1.295826e+02 
  9.446400e+04  -1.295112e+02 
  9.459200e+04  -1.293877e+02 
  9.472000e+04  -1.294597e+02 
  9.484800e+04  -1.293299e+02 
  9.497600e+04  -1.294858e+02 
  9.510400e+04  -1.295736e+02 
  9.523200e+04  -1.297309e+02 
  9.536000e+04  -1.295851e+02 
  9.548800e+04  -1.295303e+02 
  9.561600e+04  -1.293982e+02 
  9.574400e+04  -1.292568e+02 
  9.587200e+04  -1.292996e+02 
  9.600000e+04  -1.294174e+02 
  9.612800e+04  -1.294806e+02 
  9.625600e+04  -1.294301e+02 
  9.638400e+04  -1.294906e+02 
  9.651200e+04  -1.295060e+02 
  9.664000e+04  -1.293928e+02 
  9.676800e+04  -1.294662e+02 
  9.689600e+04  -1.298109e+02 
  9.702400e+04  -1.298943e+02 
  9.715200e+04  -1.297825e+02 
  9.728000e+04  -1.295720e+02 
  9.740800e+04  -1.296113e+02 
  9.753600e+04  -1.294677e+02 
  9.766400e+04  -1.292399e+02 
  9.779200e+04  -1.290365e+02 
  9.792000e+04  -1.289926e+02 
  9.804800e+04  -1.294400e+02 
  9.817600e+04  -1.298635e+02 
  9.830400e+04  -1.296892e+02 
  9.843200e+04  -1.293260e+02 
  9.856000e+04  -1.291496e+02 
  9.868800e+04  -1.292821e+02 
  9.881600e+04  -1.294197e+02 
  9.894400e+04  -1.296067e+02 
  9.907200e+04  -1.298472e+02 
  9.920000e+04  -1.298264e+02 
  9.932800e+04  -1.295789e+02 
  9.945600e+04  -1.294908e+02 
  9.958400e+04  -1.294919e+02 
  9.971200e+04  -1.293338e+02 
  9.984000e+04  -1.292998e+02 
  9.996800e+04  -1.294241e+02 
  1.000960e+05  -1.294303e+02 
  1.002240e+05  -1.293967e+02 
  1.003520e+05  -1.294891e+02 
  1.004800e+05  -1.295531e+02 
  1.006080e+05  -1.295955e+02 
  1.007360e+05  -1.294074e+02 
  1.008640e+05  -1.291856e+02 
  1.009920e+05  -1.289701e+02 
  1.011200e+05  -1.288217e+02 
  1.012480e+05  -1.288318e+02 
  1.013760e+05  -1.291424e+02 
  1.015040e+05  -1.295004e+02 
  1.016320e+05  -1.295581e+02 
  1.017600e+05  -1.292773e+02 
  1.018880e+05  -1.291951e+02 
  1.020160e+05  -1.294419e+02 
  1.021440e+05  -1.295790e+02 
  1.022720e+05  -1.293717e+02 
  1.024000e+05  -1.289865e+02 
