Input File: SRS004.78D
Measure Group: FFT
Measurement: Pwr Spec 1
Num of extracted Points: 801
Start Freq: -0 Hz
Span: 102.4 kHz
FFT Lines:  800 
Window: BMH
Averaging Mode: RMS
Averaging Type: Exp. / Cont.
Number of Avg:  200
Overload reject: Off

    X[Hz]      Mag[dBVrms/Hz] 
  0.000000e+00  -1.135262e+02 
  1.280000e+02  -1.165302e+02 
  2.560000e+02  -1.240537e+02 
  3.840000e+02  -1.290655e+02 
  5.120000e+02  -1.305295e+02 
  6.400000e+02  -1.305281e+02 
  7.680000e+02  -1.308264e+02 
  8.960000e+02  -1.314108e+02 
  1.024000e+03  -1.318606e+02 
  1.152000e+03  -1.318994e+02 
  1.280000e+03  -1.320389e+02 
  1.408000e+03  -1.321758e+02 
  1.536000e+03  -1.323784e+02 
  1.664000e+03  -1.321064e+02 
  1.792000e+03  -1.317920e+02 
  1.920000e+03  -1.317504e+02 
  2.048000e+03  -1.315370e+02 
  2.176000e+03  -1.314194e+02 
  2.304000e+03  -1.312709e+02 
  2.432000e+03  -1.313582e+02 
  2.560000e+03  -1.316009e+02 
  2.688000e+03  -1.316560e+02 
  2.816000e+03  -1.320193e+02 
  2.944000e+03  -1.319709e+02 
  3.072000e+03  -1.316716e+02 
  3.200000e+03  -1.318005e+02 
  3.328000e+03  -1.318508e+02 
  3.456000e+03  -1.316726e+02 
  3.584000e+03  -1.317318e+02 
  3.712000e+03  -1.318010e+02 
  3.840000e+03  -1.317455e+02 
  3.968000e+03  -1.315593e+02 
  4.096000e+03  -1.316764e+02 
  4.224000e+03  -1.315664e+02 
  4.352000e+03  -1.313397e+02 
  4.480000e+03  -1.314949e+02 
  4.608000e+03  -1.317255e+02 
  4.736000e+03  -1.317941e+02 
  4.864000e+03  -1.315259e+02 
  4.992000e+03  -1.310563e+02 
  5.120000e+03  -1.312443e+02 
  5.248000e+03  -1.315708e+02 
  5.376000e+03  -1.314022e+02 
  5.504000e+03  -1.310652e+02 
  5.632000e+03  -1.309077e+02 
  5.760000e+03  -1.307238e+02 
  5.888000e+03  -1.307654e+02 
  6.016000e+03  -1.311070e+02 
  6.144000e+03  -1.310723e+02 
  6.272000e+03  -1.309175e+02 
  6.400000e+03  -1.307800e+02 
  6.528000e+03  -1.305669e+02 
  6.656000e+03  -1.305184e+02 
  6.784000e+03  -1.304455e+02 
  6.912000e+03  -1.302901e+02 
  7.040000e+03  -1.302581e+02 
  7.168000e+03  -1.306431e+02 
  7.296000e+03  -1.307552e+02 
  7.424000e+03  -1.308421e+02 
  7.552000e+03  -1.307767e+02 
  7.680000e+03  -1.305460e+02 
  7.808000e+03  -1.304281e+02 
  7.936000e+03  -1.304161e+02 
  8.064000e+03  -1.302658e+02 
  8.192000e+03  -1.303244e+02 
  8.320000e+03  -1.304276e+02 
  8.448000e+03  -1.302347e+02 
  8.576000e+03  -1.301471e+02 
  8.704000e+03  -1.302800e+02 
  8.832000e+03  -1.300723e+02 
  8.960000e+03  -1.299629e+02 
  9.088000e+03  -1.299001e+02 
  9.216000e+03  -1.297014e+02 
  9.344000e+03  -1.298728e+02 
  9.472000e+03  -1.298878e+02 
  9.600000e+03  -1.299224e+02 
  9.728000e+03  -1.299406e+02 
  9.856000e+03  -1.298285e+02 
  9.984000e+03  -1.299123e+02 
  1.011200e+04  -1.298685e+02 
  1.024000e+04  -1.297701e+02 
  1.036800e+04  -1.296730e+02 
  1.049600e+04  -1.295659e+02 
  1.062400e+04  -1.297160e+02 
  1.075200e+04  -1.297901e+02 
  1.088000e+04  -1.296313e+02 
  1.100800e+04  -1.296157e+02 
  1.113600e+04  -1.296594e+02 
  1.126400e+04  -1.294607e+02 
  1.139200e+04  -1.294330e+02 
  1.152000e+04  -1.293805e+02 
  1.164800e+04  -1.291911e+02 
  1.177600e+04  -1.290401e+02 
  1.190400e+04  -1.292090e+02 
  1.203200e+04  -1.293125e+02 
  1.216000e+04  -1.292301e+02 
  1.228800e+04  -1.292179e+02 
  1.241600e+04  -1.294478e+02 
  1.254400e+04  -1.294677e+02 
  1.267200e+04  -1.293944e+02 
  1.280000e+04  -1.292987e+02 
  1.292800e+04  -1.293031e+02 
  1.305600e+04  -1.294065e+02 
  1.318400e+04  -1.292623e+02 
  1.331200e+04  -1.291883e+02 
  1.344000e+04  -1.293147e+02 
  1.356800e+04  -1.289413e+02 
  1.369600e+04  -1.287929e+02 
  1.382400e+04  -1.289740e+02 
  1.395200e+04  -1.290235e+02 
  1.408000e+04  -1.294515e+02 
  1.420800e+04  -1.295118e+02 
  1.433600e+04  -1.291148e+02 
  1.446400e+04  -1.287604e+02 
  1.459200e+04  -1.286483e+02 
  1.472000e+04  -1.288035e+02 
  1.484800e+04  -1.288490e+02 
  1.497600e+04  -1.287110e+02 
  1.510400e+04  -1.285975e+02 
  1.523200e+04  -1.284336e+02 
  1.536000e+04  -1.284162e+02 
  1.548800e+04  -1.286267e+02 
  1.561600e+04  -1.287052e+02 
  1.574400e+04  -1.287406e+02 
  1.587200e+04  -1.289030e+02 
  1.600000e+04  -1.289909e+02 
  1.612800e+04  -1.285142e+02 
  1.625600e+04  -1.281937e+02 
  1.638400e+04  -1.281993e+02 
  1.651200e+04  -1.285104e+02 
  1.664000e+04  -1.285972e+02 
  1.676800e+04  -1.284960e+02 
  1.689600e+04  -1.282952e+02 
  1.702400e+04  -1.282838e+02 
  1.715200e+04  -1.280822e+02 
  1.728000e+04  -1.280552e+02 
  1.740800e+04  -1.281144e+02 
  1.753600e+04  -1.280568e+02 
  1.766400e+04  -1.280662e+02 
  1.779200e+04  -1.282050e+02 
  1.792000e+04  -1.283489e+02 
  1.804800e+04  -1.282009e+02 
  1.817600e+04  -1.281703e+02 
  1.830400e+04  -1.282449e+02 
  1.843200e+04  -1.281322e+02 
  1.856000e+04  -1.282104e+02 
  1.868800e+04  -1.285318e+02 
  1.881600e+04  -1.283695e+02 
  1.894400e+04  -1.281314e+02 
  1.907200e+04  -1.281346e+02 
  1.920000e+04  -1.281708e+02 
  1.932800e+04  -1.281601e+02 
  1.945600e+04  -1.278305e+02 
  1.958400e+04  -1.277579e+02 
  1.971200e+04  -1.280508e+02 
  1.984000e+04  -1.281584e+02 
  1.996800e+04  -1.279649e+02 
  2.009600e+04  -1.277749e+02 
  2.022400e+04  -1.278530e+02 
  2.035200e+04  -1.279179e+02 
  2.048000e+04  -1.278920e+02 
  2.060800e+04  -1.280564e+02 
  2.073600e+04  -1.281051e+02 
  2.086400e+04  -1.278337e+02 
  2.099200e+04  -1.276114e+02 
  2.112000e+04  -1.276373e+02 
  2.124800e+04  -1.277525e+02 
  2.137600e+04  -1.278466e+02 
  2.150400e+04  -1.278294e+02 
  2.163200e+04  -1.278835e+02 
  2.176000e+04  -1.277418e+02 
  2.188800e+04  -1.275842e+02 
  2.201600e+04  -1.276961e+02 
  2.214400e+04  -1.277070e+02 
  2.227200e+04  -1.276852e+02 
  2.240000e+04  -1.274718e+02 
  2.252800e+04  -1.274679e+02 
  2.265600e+04  -1.274212e+02 
  2.278400e+04  -1.274439e+02 
  2.291200e+04  -1.276944e+02 
  2.304000e+04  -1.277841e+02 
  2.316800e+04  -1.278237e+02 
  2.329600e+04  -1.278767e+02 
  2.342400e+04  -1.280980e+02 
  2.355200e+04  -1.279341e+02 
  2.368000e+04  -1.278304e+02 
  2.380800e+04  -1.278335e+02 
  2.393600e+04  -1.274846e+02 
  2.406400e+04  -1.271202e+02 
  2.419200e+04  -1.270175e+02 
  2.432000e+04  -1.271733e+02 
  2.444800e+04  -1.276055e+02 
  2.457600e+04  -1.278127e+02 
  2.470400e+04  -1.280353e+02 
  2.483200e+04  -1.279462e+02 
  2.496000e+04  -1.277076e+02 
  2.508800e+04  -1.277731e+02 
  2.521600e+04  -1.278494e+02 
  2.534400e+04  -1.277624e+02 
  2.547200e+04  -1.276122e+02 
  2.560000e+04  -1.277382e+02 
  2.572800e+04  -1.278698e+02 
  2.585600e+04  -1.274748e+02 
  2.598400e+04  -1.273326e+02 
  2.611200e+04  -1.274397e+02 
  2.624000e+04  -1.274288e+02 
  2.636800e+04  -1.274938e+02 
  2.649600e+04  -1.275247e+02 
  2.662400e+04  -1.276166e+02 
  2.675200e+04  -1.274813e+02 
  2.688000e+04  -1.274969e+02 
  2.700800e+04  -1.276418e+02 
  2.713600e+04  -1.276381e+02 
  2.726400e+04  -1.275695e+02 
  2.739200e+04  -1.274810e+02 
  2.752000e+04  -1.274116e+02 
  2.764800e+04  -1.274937e+02 
  2.777600e+04  -1.279623e+02 
  2.790400e+04  -1.281905e+02 
  2.803200e+04  -1.277837e+02 
  2.816000e+04  -1.275290e+02 
  2.828800e+04  -1.275438e+02 
  2.841600e+04  -1.275282e+02 
  2.854400e+04  -1.275391e+02 
  2.867200e+04  -1.274908e+02 
  2.880000e+04  -1.275011e+02 
  2.892800e+04  -1.276562e+02 
  2.905600e+04  -1.276107e+02 
  2.918400e+04  -1.275152e+02 
  2.931200e+04  -1.276059e+02 
  2.944000e+04  -1.275899e+02 
  2.956800e+04  -1.275450e+02 
  2.969600e+04  -1.277591e+02 
  2.982400e+04  -1.279911e+02 
  2.995200e+04  -1.276945e+02 
  3.008000e+04  -1.273578e+02 
  3.020800e+04  -1.273951e+02 
  3.033600e+04  -1.273537e+02 
  3.046400e+04  -1.273370e+02 
  3.059200e+04  -1.274125e+02 
  3.072000e+04  -1.275331e+02 
  3.084800e+04  -1.278629e+02 
  3.097600e+04  -1.279425e+02 
  3.110400e+04  -1.277021e+02 
  3.123200e+04  -1.276098e+02 
  3.136000e+04  -1.278507e+02 
  3.148800e+04  -1.279401e+02 
  3.161600e+04  -1.276958e+02 
  3.174400e+04  -1.276160e+02 
  3.187200e+04  -1.278380e+02 
  3.200000e+04  -1.279359e+02 
  3.212800e+04  -1.279988e+02 
  3.225600e+04  -1.281195e+02 
  3.238400e+04  -1.280613e+02 
  3.251200e+04  -1.278990e+02 
  3.264000e+04  -1.278209e+02 
  3.276800e+04  -1.277812e+02 
  3.289600e+04  -1.278187e+02 
  3.302400e+04  -1.278695e+02 
  3.315200e+04  -1.277039e+02 
  3.328000e+04  -1.276592e+02 
  3.340800e+04  -1.279879e+02 
  3.353600e+04  -1.279793e+02 
  3.366400e+04  -1.275524e+02 
  3.379200e+04  -1.275742e+02 
  3.392000e+04  -1.280546e+02 
  3.404800e+04  -1.280110e+02 
  3.417600e+04  -1.275353e+02 
  3.430400e+04  -1.275155e+02 
  3.443200e+04  -1.276851e+02 
  3.456000e+04  -1.278139e+02 
  3.468800e+04  -1.278710e+02 
  3.481600e+04  -1.277959e+02 
  3.494400e+04  -1.276540e+02 
  3.507200e+04  -1.278552e+02 
  3.520000e+04  -1.282216e+02 
  3.532800e+04  -1.283628e+02 
  3.545600e+04  -1.280149e+02 
  3.558400e+04  -1.278792e+02 
  3.571200e+04  -1.281614e+02 
  3.584000e+04  -1.283764e+02 
  3.596800e+04  -1.281399e+02 
  3.609600e+04  -1.279476e+02 
  3.622400e+04  -1.279638e+02 
  3.635200e+04  -1.281001e+02 
  3.648000e+04  -1.282361e+02 
  3.660800e+04  -1.280368e+02 
  3.673600e+04  -1.281892e+02 
  3.686400e+04  -1.283459e+02 
  3.699200e+04  -1.282883e+02 
  3.712000e+04  -1.281521e+02 
  3.724800e+04  -1.279444e+02 
  3.737600e+04  -1.279161e+02 
  3.750400e+04  -1.277984e+02 
  3.763200e+04  -1.278598e+02 
  3.776000e+04  -1.278240e+02 
  3.788800e+04  -1.277683e+02 
  3.801600e+04  -1.277771e+02 
  3.814400e+04  -1.277062e+02 
  3.827200e+04  -1.278262e+02 
  3.840000e+04  -1.280054e+02 
  3.852800e+04  -1.281890e+02 
  3.865600e+04  -1.282886e+02 
  3.878400e+04  -1.281702e+02 
  3.891200e+04  -1.280000e+02 
  3.904000e+04  -1.279762e+02 
  3.916800e+04  -1.281295e+02 
  3.929600e+04  -1.281054e+02 
  3.942400e+04  -1.276907e+02 
  3.955200e+04  -1.276628e+02 
  3.968000e+04  -1.278890e+02 
  3.980800e+04  -1.280219e+02 
  3.993600e+04  -1.279641e+02 
  4.006400e+04  -1.280426e+02 
  4.019200e+04  -1.283428e+02 
  4.032000e+04  -1.282470e+02 
  4.044800e+04  -1.280683e+02 
  4.057600e+04  -1.281592e+02 
  4.070400e+04  -1.283730e+02 
  4.083200e+04  -1.284945e+02 
  4.096000e+04  -1.283939e+02 
  4.108800e+04  -1.280520e+02 
  4.121600e+04  -1.279566e+02 
  4.134400e+04  -1.281776e+02 
  4.147200e+04  -1.280858e+02 
  4.160000e+04  -1.280503e+02 
  4.172800e+04  -1.283033e+02 
  4.185600e+04  -1.281680e+02 
  4.198400e+04  -1.280618e+02 
  4.211200e+04  -1.282917e+02 
  4.224000e+04  -1.284563e+02 
  4.236800e+04  -1.284943e+02 
  4.249600e+04  -1.283303e+02 
  4.262400e+04  -1.280433e+02 
  4.275200e+04  -1.281076e+02 
  4.288000e+04  -1.282122e+02 
  4.300800e+04  -1.284978e+02 
  4.313600e+04  -1.288064e+02 
  4.326400e+04  -1.286006e+02 
  4.339200e+04  -1.285424e+02 
  4.352000e+04  -1.285177e+02 
  4.364800e+04  -1.283443e+02 
  4.377600e+04  -1.282019e+02 
  4.390400e+04  -1.282674e+02 
  4.403200e+04  -1.284575e+02 
  4.416000e+04  -1.284068e+02 
  4.428800e+04  -1.280275e+02 
  4.441600e+04  -1.280036e+02 
  4.454400e+04  -1.283113e+02 
  4.467200e+04  -1.285099e+02 
  4.480000e+04  -1.285977e+02 
  4.492800e+04  -1.283795e+02 
  4.505600e+04  -1.283235e+02 
  4.518400e+04  -1.284980e+02 
  4.531200e+04  -1.284623e+02 
  4.544000e+04  -1.282491e+02 
  4.556800e+04  -1.280831e+02 
  4.569600e+04  -1.282862e+02 
  4.582400e+04  -1.283630e+02 
  4.595200e+04  -1.281589e+02 
  4.608000e+04  -1.282266e+02 
  4.620800e+04  -1.281458e+02 
  4.633600e+04  -1.281806e+02 
  4.646400e+04  -1.284881e+02 
  4.659200e+04  -1.284552e+02 
  4.672000e+04  -1.281894e+02 
  4.684800e+04  -1.282383e+02 
  4.697600e+04  -1.283573e+02 
  4.710400e+04  -1.284184e+02 
  4.723200e+04  -1.285481e+02 
  4.736000e+04  -1.284755e+02 
  4.748800e+04  -1.284392e+02 
  4.761600e+04  -1.287148e+02 
  4.774400e+04  -1.289171e+02 
  4.787200e+04  -1.287354e+02 
  4.800000e+04  -1.283328e+02 
  4.812800e+04  -1.280699e+02 
  4.825600e+04  -1.281886e+02 
  4.838400e+04  -1.287138e+02 
  4.851200e+04  -1.288823e+02 
  4.864000e+04  -1.286649e+02 
  4.876800e+04  -1.284981e+02 
  4.889600e+04  -1.283346e+02 
  4.902400e+04  -1.284280e+02 
  4.915200e+04  -1.286290e+02 
  4.928000e+04  -1.286164e+02 
  4.940800e+04  -1.286423e+02 
  4.953600e+04  -1.286788e+02 
  4.966400e+04  -1.287101e+02 
  4.979200e+04  -1.285715e+02 
  4.992000e+04  -1.283407e+02 
  5.004800e+04  -1.284269e+02 
  5.017600e+04  -1.286604e+02 
  5.030400e+04  -1.287287e+02 
  5.043200e+04  -1.288249e+02 
  5.056000e+04  -1.288362e+02 
  5.068800e+04  -1.284781e+02 
  5.081600e+04  -1.284718e+02 
  5.094400e+04  -1.288495e+02 
  5.107200e+04  -1.288044e+02 
  5.120000e+04  -1.288955e+02 
  5.132800e+04  -1.291054e+02 
  5.145600e+04  -1.289838e+02 
  5.158400e+04  -1.287743e+02 
  5.171200e+04  -1.287971e+02 
  5.184000e+04  -1.289697e+02 
  5.196800e+04  -1.288799e+02 
  5.209600e+04  -1.288846e+02 
  5.222400e+04  -1.289057e+02 
  5.235200e+04  -1.285837e+02 
  5.248000e+04  -1.283939e+02 
  5.260800e+04  -1.284737e+02 
  5.273600e+04  -1.285933e+02 
  5.286400e+04  -1.289408e+02 
  5.299200e+04  -1.291478e+02 
  5.312000e+04  -1.289814e+02 
  5.324800e+04  -1.287802e+02 
  5.337600e+04  -1.284267e+02 
  5.350400e+04  -1.284169e+02 
  5.363200e+04  -1.286308e+02 
  5.376000e+04  -1.285551e+02 
  5.388800e+04  -1.287001e+02 
  5.401600e+04  -1.289636e+02 
  5.414400e+04  -1.288752e+02 
  5.427200e+04  -1.287411e+02 
  5.440000e+04  -1.288463e+02 
  5.452800e+04  -1.291623e+02 
  5.465600e+04  -1.291960e+02 
  5.478400e+04  -1.288099e+02 
  5.491200e+04  -1.284928e+02 
  5.504000e+04  -1.286900e+02 
  5.516800e+04  -1.289734e+02 
  5.529600e+04  -1.289689e+02 
  5.542400e+04  -1.290636e+02 
  5.555200e+04  -1.288748e+02 
  5.568000e+04  -1.285091e+02 
  5.580800e+04  -1.284300e+02 
  5.593600e+04  -1.287241e+02 
  5.606400e+04  -1.286980e+02 
  5.619200e+04  -1.286621e+02 
  5.632000e+04  -1.290430e+02 
  5.644800e+04  -1.293264e+02 
  5.657600e+04  -1.290188e+02 
  5.670400e+04  -1.287861e+02 
  5.683200e+04  -1.288622e+02 
  5.696000e+04  -1.287166e+02 
  5.708800e+04  -1.286443e+02 
  5.721600e+04  -1.287056e+02 
  5.734400e+04  -1.286822e+02 
  5.747200e+04  -1.290492e+02 
  5.760000e+04  -1.292984e+02 
  5.772800e+04  -1.290869e+02 
  5.785600e+04  -1.289096e+02 
  5.798400e+04  -1.290704e+02 
  5.811200e+04  -1.291642e+02 
  5.824000e+04  -1.290798e+02 
  5.836800e+04  -1.288694e+02 
  5.849600e+04  -1.286438e+02 
  5.862400e+04  -1.284501e+02 
  5.875200e+04  -1.287819e+02 
  5.888000e+04  -1.289559e+02 
  5.900800e+04  -1.288838e+02 
  5.913600e+04  -1.288098e+02 
  5.926400e+04  -1.288534e+02 
  5.939200e+04  -1.287850e+02 
  5.952000e+04  -1.287893e+02 
  5.964800e+04  -1.288023e+02 
  5.977600e+04  -1.288230e+02 
  5.990400e+04  -1.290199e+02 
  6.003200e+04  -1.291151e+02 
  6.016000e+04  -1.288600e+02 
  6.028800e+04  -1.284937e+02 
  6.041600e+04  -1.285173e+02 
  6.054400e+04  -1.287221e+02 
  6.067200e+04  -1.290479e+02 
  6.080000e+04  -1.291520e+02 
  6.092800e+04  -1.290294e+02 
  6.105600e+04  -1.290240e+02 
  6.118400e+04  -1.290451e+02 
  6.131200e+04  -1.288811e+02 
  6.144000e+04  -1.289917e+02 
  6.156800e+04  -1.288790e+02 
  6.169600e+04  -1.288120e+02 
  6.182400e+04  -1.289087e+02 
  6.195200e+04  -1.291055e+02 
  6.208000e+04  -1.290636e+02 
  6.220800e+04  -1.289728e+02 
  6.233600e+04  -1.290371e+02 
  6.246400e+04  -1.288070e+02 
  6.259200e+04  -1.285910e+02 
  6.272000e+04  -1.287975e+02 
  6.284800e+04  -1.290043e+02 
  6.297600e+04  -1.290774e+02 
  6.310400e+04  -1.290326e+02 
  6.323200e+04  -1.289123e+02 
  6.336000e+04  -1.286273e+02 
  6.348800e+04  -1.287601e+02 
  6.361600e+04  -1.289926e+02 
  6.374400e+04  -1.289440e+02 
  6.387200e+04  -1.288693e+02 
  6.400000e+04  -1.290384e+02 
  6.412800e+04  -1.292080e+02 
  6.425600e+04  -1.290493e+02 
  6.438400e+04  -1.288570e+02 
  6.451200e+04  -1.292585e+02 
  6.464000e+04  -1.293867e+02 
  6.476800e+04  -1.294169e+02 
  6.489600e+04  -1.291902e+02 
  6.502400e+04  -1.291165e+02 
  6.515200e+04  -1.291526e+02 
  6.528000e+04  -1.289570e+02 
  6.540800e+04  -1.289972e+02 
  6.553600e+04  -1.290834e+02 
  6.566400e+04  -1.291190e+02 
  6.579200e+04  -1.291155e+02 
  6.592000e+04  -1.289780e+02 
  6.604800e+04  -1.291492e+02 
  6.617600e+04  -1.293666e+02 
  6.630400e+04  -1.292877e+02 
  6.643200e+04  -1.292822e+02 
  6.656000e+04  -1.291826e+02 
  6.668800e+04  -1.290795e+02 
  6.681600e+04  -1.292141e+02 
  6.694400e+04  -1.291331e+02 
  6.707200e+04  -1.290143e+02 
  6.720000e+04  -1.289530e+02 
  6.732800e+04  -1.288397e+02 
  6.745600e+04  -1.289217e+02 
  6.758400e+04  -1.289653e+02 
  6.771200e+04  -1.289046e+02 
  6.784000e+04  -1.291240e+02 
  6.796800e+04  -1.291756e+02 
  6.809600e+04  -1.290263e+02 
  6.822400e+04  -1.289351e+02 
  6.835200e+04  -1.289955e+02 
  6.848000e+04  -1.290325e+02 
  6.860800e+04  -1.289624e+02 
  6.873600e+04  -1.289140e+02 
  6.886400e+04  -1.290240e+02 
  6.899200e+04  -1.290130e+02 
  6.912000e+04  -1.290224e+02 
  6.924800e+04  -1.291633e+02 
  6.937600e+04  -1.292256e+02 
  6.950400e+04  -1.293783e+02 
  6.963200e+04  -1.296032e+02 
  6.976000e+04  -1.292777e+02 
  6.988800e+04  -1.288997e+02 
  7.001600e+04  -1.290340e+02 
  7.014400e+04  -1.291893e+02 
  7.027200e+04  -1.291435e+02 
  7.040000e+04  -1.290280e+02 
  7.052800e+04  -1.289573e+02 
  7.065600e+04  -1.291224e+02 
  7.078400e+04  -1.293214e+02 
  7.091200e+04  -1.294117e+02 
  7.104000e+04  -1.290055e+02 
  7.116800e+04  -1.288076e+02 
  7.129600e+04  -1.287145e+02 
  7.142400e+04  -1.287204e+02 
  7.155200e+04  -1.288412e+02 
  7.168000e+04  -1.289149e+02 
  7.180800e+04  -1.287519e+02 
  7.193600e+04  -1.288495e+02 
  7.206400e+04  -1.288591e+02 
  7.219200e+04  -1.286420e+02 
  7.232000e+04  -1.287412e+02 
  7.244800e+04  -1.292796e+02 
  7.257600e+04  -1.294210e+02 
  7.270400e+04  -1.291693e+02 
  7.283200e+04  -1.289670e+02 
  7.296000e+04  -1.287599e+02 
  7.308800e+04  -1.287472e+02 
  7.321600e+04  -1.288826e+02 
  7.334400e+04  -1.291452e+02 
  7.347200e+04  -1.293631e+02 
  7.360000e+04  -1.296240e+02 
  7.372800e+04  -1.295632e+02 
  7.385600e+04  -1.294254e+02 
  7.398400e+04  -1.293741e+02 
  7.411200e+04  -1.290507e+02 
  7.424000e+04  -1.286358e+02 
  7.436800e+04  -1.287213e+02 
  7.449600e+04  -1.289624e+02 
  7.462400e+04  -1.287364e+02 
  7.475200e+04  -1.285365e+02 
  7.488000e+04  -1.287569e+02 
  7.500800e+04  -1.289720e+02 
  7.513600e+04  -1.289667e+02 
  7.526400e+04  -1.291031e+02 
  7.539200e+04  -1.290603e+02 
  7.552000e+04  -1.288214e+02 
  7.564800e+04  -1.288139e+02 
  7.577600e+04  -1.289756e+02 
  7.590400e+04  -1.290331e+02 
  7.603200e+04  -1.291373e+02 
  7.616000e+04  -1.293932e+02 
  7.628800e+04  -1.292131e+02 
  7.641600e+04  -1.288566e+02 
  7.654400e+04  -1.288983e+02 
  7.667200e+04  -1.289720e+02 
  7.680000e+04  -1.292540e+02 
  7.692800e+04  -1.295174e+02 
  7.705600e+04  -1.292837e+02 
  7.718400e+04  -1.290958e+02 
  7.731200e+04  -1.290750e+02 
  7.744000e+04  -1.291774e+02 
  7.756800e+04  -1.292410e+02 
  7.769600e+04  -1.290829e+02 
  7.782400e+04  -1.290830e+02 
  7.795200e+04  -1.290529e+02 
  7.808000e+04  -1.290347e+02 
  7.820800e+04  -1.289599e+02 
  7.833600e+04  -1.289904e+02 
  7.846400e+04  -1.289126e+02 
  7.859200e+04  -1.288060e+02 
  7.872000e+04  -1.290170e+02 
  7.884800e+04  -1.292737e+02 
  7.897600e+04  -1.291770e+02 
  7.910400e+04  -1.287653e+02 
  7.923200e+04  -1.287594e+02 
  7.936000e+04  -1.292013e+02 
  7.948800e+04  -1.294195e+02 
  7.961600e+04  -1.293059e+02 
  7.974400e+04  -1.291289e+02 
  7.987200e+04  -1.290638e+02 
  8.000000e+04  -1.290116e+02 
  8.012800e+04  -1.291027e+02 
  8.025600e+04  -1.292143e+02 
  8.038400e+04  -1.292987e+02 
  8.051200e+04  -1.292222e+02 
  8.064000e+04  -1.290480e+02 
  8.076800e+04  -1.291650e+02 
  8.089600e+04  -1.292864e+02 
  8.102400e+04  -1.290702e+02 
  8.115200e+04  -1.288372e+02 
  8.128000e+04  -1.288184e+02 
  8.140800e+04  -1.289389e+02 
  8.153600e+04  -1.288011e+02 
  8.166400e+04  -1.290655e+02 
  8.179200e+04  -1.291050e+02 
  8.192000e+04  -1.288075e+02 
  8.204800e+04  -1.289976e+02 
  8.217600e+04  -1.291455e+02 
  8.230400e+04  -1.291242e+02 
  8.243200e+04  -1.291521e+02 
  8.256000e+04  -1.291758e+02 
  8.268800e+04  -1.289409e+02 
  8.281600e+04  -1.286715e+02 
  8.294400e+04  -1.288415e+02 
  8.307200e+04  -1.291375e+02 
  8.320000e+04  -1.294233e+02 
  8.332800e+04  -1.294117e+02 
  8.345600e+04  -1.294637e+02 
  8.358400e+04  -1.294045e+02 
  8.371200e+04  -1.290324e+02 
  8.384000e+04  -1.289283e+02 
  8.396800e+04  -1.289245e+02 
  8.409600e+04  -1.289168e+02 
  8.422400e+04  -1.292376e+02 
  8.435200e+04  -1.294662e+02 
  8.448000e+04  -1.293135e+02 
  8.460800e+04  -1.290734e+02 
  8.473600e+04  -1.290186e+02 
  8.486400e+04  -1.290956e+02 
  8.499200e+04  -1.290450e+02 
  8.512000e+04  -1.288178e+02 
  8.524800e+04  -1.287606e+02 
  8.537600e+04  -1.288443e+02 
  8.550400e+04  -1.288306e+02 
  8.563200e+04  -1.290825e+02 
  8.576000e+04  -1.292866e+02 
  8.588800e+04  -1.293579e+02 
  8.601600e+04  -1.293167e+02 
  8.614400e+04  -1.291760e+02 
  8.627200e+04  -1.289805e+02 
  8.640000e+04  -1.288938e+02 
  8.652800e+04  -1.292882e+02 
  8.665600e+04  -1.295128e+02 
  8.678400e+04  -1.294456e+02 
  8.691200e+04  -1.294693e+02 
  8.704000e+04  -1.293650e+02 
  8.716800e+04  -1.290678e+02 
  8.729600e+04  -1.290993e+02 
  8.742400e+04  -1.292896e+02 
  8.755200e+04  -1.291152e+02 
  8.768000e+04  -1.289146e+02 
  8.780800e+04  -1.288328e+02 
  8.793600e+04  -1.290568e+02 
  8.806400e+04  -1.294656e+02 
  8.819200e+04  -1.293951e+02 
  8.832000e+04  -1.292897e+02 
  8.844800e+04  -1.293777e+02 
  8.857600e+04  -1.294002e+02 
  8.870400e+04  -1.293747e+02 
  8.883200e+04  -1.294855e+02 
  8.896000e+04  -1.294894e+02 
  8.908800e+04  -1.292152e+02 
  8.921600e+04  -1.289823e+02 
  8.934400e+04  -1.288639e+02 
  8.947200e+04  -1.290972e+02 
  8.960000e+04  -1.292537e+02 
  8.972800e+04  -1.293596e+02 
  8.985600e+04  -1.294707e+02 
  8.998400e+04  -1.296508e+02 
  9.011200e+04  -1.297689e+02 
  9.024000e+04  -1.296897e+02 
  9.036800e+04  -1.295688e+02 
  9.049600e+04  -1.294200e+02 
  9.062400e+04  -1.291899e+02 
  9.075200e+04  -1.292751e+02 
  9.088000e+04  -1.290844e+02 
  9.100800e+04  -1.288744e+02 
  9.113600e+04  -1.295152e+02 
  9.126400e+04  -1.298446e+02 
  9.139200e+04  -1.295024e+02 
  9.152000e+04  -1.292519e+02 
  9.164800e+04  -1.292445e+02 
  9.177600e+04  -1.291573e+02 
  9.190400e+04  -1.292204e+02 
  9.203200e+04  -1.292805e+02 
  9.216000e+04  -1.291264e+02 
  9.228800e+04  -1.291131e+02 
  9.241600e+04  -1.290917e+02 
  9.254400e+04  -1.290862e+02 
  9.267200e+04  -1.294242e+02 
  9.280000e+04  -1.297339e+02 
  9.292800e+04  -1.297207e+02 
  9.305600e+04  -1.295604e+02 
  9.318400e+04  -1.294124e+02 
  9.331200e+04  -1.293730e+02 
  9.344000e+04  -1.294116e+02 
  9.356800e+04  -1.294044e+02 
  9.369600e+04  -1.294099e+02 
  9.382400e+04  -1.295676e+02 
  9.395200e+04  -1.297466e+02 
  9.408000e+04  -1.297936e+02 
  9.420800e+04  -1.295421e+02 
  9.433600e+04  -1.293712e+02 
  9.446400e+04  -1.294737e+02 
  9.459200e+04  -1.295219e+02 
  9.472000e+04  -1.293843e+02 
  9.484800e+04  -1.292211e+02 
  9.497600e+04  -1.291064e+02 
  9.510400e+04  -1.291387e+02 
  9.523200e+04  -1.292510e+02 
  9.536000e+04  -1.291060e+02 
  9.548800e+04  -1.289935e+02 
  9.561600e+04  -1.292649e+02 
  9.574400e+04  -1.293787e+02 
  9.587200e+04  -1.292597e+02 
  9.600000e+04  -1.293855e+02 
  9.612800e+04  -1.295051e+02 
  9.625600e+04  -1.293984e+02 
  9.638400e+04  -1.294019e+02 
  9.651200e+04  -1.293998e+02 
  9.664000e+04  -1.294400e+02 
  9.676800e+04  -1.295185e+02 
  9.689600e+04  -1.295498e+02 
  9.702400e+04  -1.294352e+02 
  9.715200e+04  -1.294587e+02 
  9.728000e+04  -1.295339e+02 
  9.740800e+04  -1.294429e+02 
  9.753600e+04  -1.293598e+02 
  9.766400e+04  -1.293407e+02 
  9.779200e+04  -1.294665e+02 
  9.792000e+04  -1.292938e+02 
  9.804800e+04  -1.290483e+02 
  9.817600e+04  -1.291767e+02 
  9.830400e+04  -1.293987e+02 
  9.843200e+04  -1.294288e+02 
  9.856000e+04  -1.294626e+02 
  9.868800e+04  -1.295376e+02 
  9.881600e+04  -1.293274e+02 
  9.894400e+04  -1.292644e+02 
  9.907200e+04  -1.292955e+02 
  9.920000e+04  -1.293457e+02 
  9.932800e+04  -1.294176e+02 
  9.945600e+04  -1.294663e+02 
  9.958400e+04  -1.295512e+02 
  9.971200e+04  -1.296306e+02 
  9.984000e+04  -1.294888e+02 
  9.996800e+04  -1.290501e+02 
  1.000960e+05  -1.290312e+02 
  1.002240e+05  -1.291264e+02 
  1.003520e+05  -1.290939e+02 
  1.004800e+05  -1.293671e+02 
  1.006080e+05  -1.295948e+02 
  1.007360e+05  -1.293038e+02 
  1.008640e+05  -1.288066e+02 
  1.009920e+05  -1.289520e+02 
  1.011200e+05  -1.293447e+02 
  1.012480e+05  -1.294840e+02 
  1.013760e+05  -1.294668e+02 
  1.015040e+05  -1.293611e+02 
  1.016320e+05  -1.292290e+02 
  1.017600e+05  -1.292201e+02 
  1.018880e+05  -1.292763e+02 
  1.020160e+05  -1.294857e+02 
  1.021440e+05  -1.297806e+02 
  1.022720e+05  -1.297209e+02 
  1.024000e+05  -1.296817e+02 
